<<PMCA SPECTRUM>>
TAG - live_data
DESCRIPTION - 
GAIN - 2
THRESHOLD - 0
LIVE_MODE - 0
PRESET_TIME - 0
LIVE_TIME - 1751.575000
REAL_TIME - 1800.000000
START_TIME - 07/04/2024 13:19:59
SERIAL_NUMBER - 0
<<ROI>>
7040 7074
<<DATA>>
0
0
0
0
0
0
0
0
1460
6546
8180
2162
2073
2086
2003
2029
1994
2039
2059
2137
2827
4243
2257
2086
2079
2413
2330
2965
3811
4919
44628
46555
3842
2928
8348
14700
4497
1964
1807
1812
1777
1733
1746
1729
1715
1715
1740
1753
1762
1771
1771
1699
1757
1777
1871
1835
1862
2062
1866
1915
1862
2036
1835
1840
1962
1917
1946
1951
1897
1920
1929
2027
2067
1979
2138
1898
2001
1971
1951
1951
1924
1893
1942
1876
2037
1953
1939
1887
1835
1944
1869
1810
1912
1838
1834
1845
1880
1826
1828
1900
1819
1837
1827
1821
1813
1815
1797
1761
1727
1784
1822
1777
1756
1860
1682
1735
1796
1677
1791
1707
1781
1669
1776
1689
1741
1704
1694
1685
1620
1680
1685
1655
1732
1666
1683
1689
1564
1702
1673
1591
1660
1628
1648
1572
1671
1578
1548
1600
1650
1546
1571
1606
1550
1576
1516
1525
1550
1538
1543
1520
1579
1557
1582
1602
1511
1470
1527
1484
1501
1538
1479
1603
1538
1533
1639
1637
1697
1920
2011
2213
2059
1996
2046
2066
1916
2024
1866
1917
1944
1899
1892
1854
1815
1765
1772
1854
1800
1821
1775
1754
1740
1790
1732
1717
1692
1671
1716
1675
1676
1632
1615
1587
1687
1541
1615
1669
1619
1525
1615
1550
1560
1584
1602
1538
1485
1548
1462
1524
1507
1611
1607
1560
1458
1593
1483
1442
1426
1449
1473
1436
1441
1356
1458
1355
1400
1298
1478
1358
1424
1428
1343
1390
1383
1429
1353
1317
1414
1328
1350
1331
1417
1371
1340
1386
1285
1343
1310
1375
1355
1319
1341
1278
1359
1298
1314
1329
1345
1307
1329
1259
1262
1337
1315
1356
1649
1391
1299
1318
1270
1257
1342
1292
1271
1251
1286
1320
1260
1274
1244
1265
1345
1311
1277
1224
1276
1278
1261
1324
1242
1253
1278
1310
1264
1278
1263
1361
1287
1298
1242
1304
1259
1351
1390
1375
1344
1316
1309
1336
1338
1357
1307
1326
1304
1341
1402
1330
1322
1354
1645
1693
1397
1320
1275
1355
1279
1398
1420
1328
1371
1329
1384
1409
1385
1417
1399
1430
1454
1460
1350
1381
1365
1456
1454
1439
1393
1447
1383
1497
1405
1479
1420
1452
1510
1491
1535
1475
1469
1544
1505
1424
1486
1557
1533
1551
1547
1572
1523
1499
1589
1545
1690
1568
1597
1554
1595
1608
1614
1632
1634
1676
1677
1695
1650
1651
1597
1776
1709
1711
1757
1746
1699
1774
1837
1735
1841
1819
1876
1885
1858
1861
1823
1877
1818
1874
1935
1956
1944
2038
1930
1996
1960
2029
2007
2038
2010
2124
2130
2106
2116
2098
2135
2201
2188
2225
2240
2334
2267
2318
2317
2353
2376
2353
2440
2381
2362
2314
2266
2278
2091
1972
1788
1611
1528
1485
1380
1360
1267
1271
1235
1185
1204
1170
1116
1110
1181
1116
1079
1054
1005
1067
1015
1012
975
986
968
971
977
958
956
938
921
916
934
862
841
779
821
821
824
771
788
734
742
714
720
711
708
730
706
675
684
643
638
614
630
556
571
583
565
559
540
544
516
485
465
463
461
459
434
423
417
387
385
347
395
368
336
351
331
313
341
334
301
301
309
263
288
291
282
274
269
250
260
268
264
257
264
269
263
267
275
307
292
255
269
234
238
233
244
228
233
242
225
234
227
233
232
238
241
227
221
223
220
226
220
291
538
536
248
188
218
225
212
218
207
205
224
231
226
247
206
219
228
233
222
225
223
198
252
199
214
219
207
221
219
217
248
222
216
215
195
210
203
211
214
225
244
290
246
249
241
222
261
292
863
7792
61135
139979
47199
3623
1269
532
275
188
153
184
147
133
133
123
117
91
105
96
95
104
103
69
108
86
103
75
97
66
74
86
100
81
94
62
72
56
55
77
50
57
50
65
57
60
53
57
57
44
61
60
42
49
47
55
42
44
54
55
44
43
44
38
40
36
43
50
38
43
47
38
39
41
43
38
45
42
38
55
43
51
33
37
42
31
30
37
39
42
37
41
40
35
32
38
38
38
33
41
42
29
40
38
30
45
65
42
44
40
45
33
30
36
30
33
38
24
39
33
30
26
50
29
28
26
38
33
42
32
31
47
31
32
31
26
32
27
43
25
33
26
40
27
29
31
28
30
31
24
31
38
36
25
33
29
34
34
31
27
22
23
32
28
24
31
36
20
34
24
39
31
25
33
36
26
25
25
29
31
31
39
25
36
44
24
24
25
28
26
21
34
43
22
29
27
33
24
24
30
18
20
26
33
27
22
20
20
31
21
21
24
20
25
35
27
39
24
16
36
30
18
21
16
24
20
26
31
24
32
19
18
28
13
11
20
31
20
23
12
27
29
37
50
43
31
12
21
21
18
18
24
17
16
23
10
18
17
31
25
20
24
20
18
32
28
39
21
19
17
24
18
13
20
26
21
30
24
23
16
24
23
18
19
18
22
19
17
23
15
12
13
17
20
19
25
28
28
25
31
27
19
16
23
13
20
19
13
18
21
15
14
20
25
21
28
13
12
25
23
20
20
18
16
19
11
19
18
16
25
15
22
15
21
23
16
18
23
13
9
20
17
18
12
18
10
25
19
19
17
18
17
14
17
20
13
18
10
18
20
14
10
9
16
9
15
28
16
15
20
18
23
15
13
12
14
17
19
20
17
22
15
11
12
16
20
9
22
17
13
<<END>>
<<DP5 CONFIGURATION>>
RESC=?;    Reset Configuration
PURE=OFF;    PUR Interval On/Off
MCAS=NORM;    MCA Source
MCAC=1024;    MCA/MCS Channels
SOFF=OFF;    Set Spectrum Offset
GAIA=2;    Analog Gain Index
PDMD=NORM;    Peak Detect Mode (Min/Max)
THSL=0.805;    Slow Threshold
TLLD=OFF;    LLD Threshold
GATE=OFF;    Gate Control
AUO1=PEAKH;    AUX_OUT Selection
PRET=??;    Preset Time
PRER=1800.000;    Preset Real Time
PREL=OFF;    Preset Live Time
PREC=OFF;    Preset Counts
PRCL=0;    Preset Counts Low Threshold
PRCH=8191;    Preset Counts High Threshold
SCOE=FA;    Scope Trigger Edge
SCOT=50;    Scope Trigger Position
SCOG=1;    Digital Scope Gain
MCSL=0;    MCS Low Threshold
MCSH=8191;    MCS High Threshold
MCST=0.01;    MCS Timebase
AUO2=ICR;    AUX_OUT2 Selection
GPED=RI;    G.P. Counter Edge
GPIN=AUX2;    G.P. Counter Input
GPME=ON;    G.P. Counter Uses MCA_EN?
GPGA=ON;    G.P. Counter Uses GATE?
GPMC=ON;    G.P. Counter Cleared With MCA Counters?
MCAE=OFF;    MCA/MCS Enable
PDMD=NORM;
<<DP5 CONFIGURATION END>>
<<DPP STATUS>>
Device Type: MCA8000D
Serial Number: 1896
Firmware: 6.09  Build:  0
FPGA: 1.08
Slow Count: 1249504
Real Time: 1800.000000
Live Time: 1751.575000
Board Temp: 38°C
<<DPP STATUS END>>
